const xrdJcamp1 = `
##TITLE=Spectrum
##JCAMP-DX=5.00 $$ chemotion-converter-app (0.1.0)
##DATA TYPE=X-RAY DIFFRACTION
##DATA CLASS=NTUPLES
##ORIGIN=
##OWNER=
##FIRSTX=5.0000
##LASTX=115.0061
##MINX=5.0
##MAXX=115.0061
##MINY=0.0139
##MAXY=5.4167
##NPOINTS=10677
##FIRSTY=0.6215
##XUNITS=2Theta
##YUNITS=Intensity
##XYDATA=(XY..XY)
5.0000, 0.6215
5.0103, 0.5729
5.0206, 0.5417
5.0309, 0.5486
5.0412, 0.5556
5.0515, 0.5694
5.0618, 0.5729
5.0721, 0.5781
5.0824, 0.5590
5.0927, 0.5764
5.1030, 0.6128
5.1133, 0.5521
5.1236, 0.5816
5.1340, 0.6198
5.1443, 0.5712
5.1546, 0.5590
5.1649, 0.5278
5.1752, 0.5122
5.1855, 0.5503
5.1958, 0.5069
5.2061, 0.5469
5.2164, 0.5729
5.2267, 0.5139
5.2370, 0.5000
5.2473, 0.4878
5.2576, 0.5156
5.2679, 0.5694
5.2782, 0.5208
5.2885, 0.5069
5.2988, 0.5174
5.3091, 0.4635
5.3194, 0.5295
5.3297, 0.5451
5.3400, 0.5174
5.3503, 0.5295
5.3606, 0.5122
5.3709, 0.5469
5.3813, 0.5069
5.3916, 0.5556
5.4019, 0.5382
5.4122, 0.5156
5.4225, 0.4844
5.4328, 0.5434
5.4431, 0.5503
5.4534, 0.4323
5.4637, 0.5625
5.4740, 0.5313
5.4843, 0.4688
5.4946, 0.4965
5.5049, 0.4983
5.5152, 0.5139
5.5255, 0.4705
5.5358, 0.4965
5.5461, 0.4931
5.5564, 0.4740
5.5667, 0.5139
5.5770, 0.4514
5.5873, 0.4722
5.5976, 0.4653
5.6079, 0.4549
5.6182, 0.4653
5.6285, 0.4080
5.6389, 0.4566
5.6492, 0.4792
5.6595, 0.4688
5.6698, 0.4462
5.6801, 0.5243
5.6904, 0.4462
5.7007, 0.4549
5.7110, 0.4462
5.7213, 0.4653
5.7316, 0.4688
5.7419, 0.4132
5.7522, 0.4375
5.7625, 0.4583
5.7728, 0.4340
5.7831, 0.4479
5.7934, 0.4201
5.8037, 0.5156
5.8140, 0.4757
5.8243, 0.3941
5.8346, 0.4375
5.8449, 0.4479
5.8552, 0.3663
5.8655, 0.4063
5.8758, 0.4375
5.8861, 0.4826
5.8965, 0.4375
5.9068, 0.4410
5.9171, 0.3976
5.9274, 0.4375
5.9377, 0.4531
5.9480, 0.4688
5.9583, 0.4097
5.9686, 0.4427
5.9789, 0.4149
5.9892, 0.4427
5.9995, 0.3837
6.0098, 0.4288
6.0201, 0.4514
6.0304, 0.3941
6.0407, 0.4392
6.0510, 0.4288
6.0613, 0.4045
6.0716, 0.4063
6.0819, 0.3889
6.0922, 0.4063
6.1025, 0.4288
6.1128, 0.3611
6.1231, 0.4080
6.1334, 0.4063
6.1438, 0.4514
6.1541, 0.4288
6.1644, 0.4236
6.1747, 0.4340
6.1850, 0.3854
6.1953, 0.4010
6.2056, 0.3872
6.2159, 0.4149
6.2262, 0.3611
6.2365, 0.3837
6.2468, 0.4115
6.2571, 0.4392
6.2674, 0.4028
6.2777, 0.3715
6.2880, 0.3802
6.2983, 0.3889
6.3086, 0.3628
6.3189, 0.4115
6.3292, 0.3559
6.3395, 0.3941
6.3498, 0.3073
6.3601, 0.3646
6.3704, 0.4097
6.3807, 0.3889
6.3910, 0.3681
6.4014, 0.3420
6.4117, 0.3854
6.4220, 0.3611
6.4323, 0.3542
6.4426, 0.3385
6.4529, 0.3542
6.4632, 0.3681
6.4735, 0.4045
6.4838, 0.3576
6.4941, 0.3594
6.5044, 0.3663
6.5147, 0.3802
6.5250, 0.3767
6.5353, 0.3941
6.5456, 0.3420
6.5559, 0.3247
6.5662, 0.3368
6.5765, 0.3507
6.5868, 0.3559
6.5971, 0.3715
6.6074, 0.3524
6.6177, 0.3628
6.6280, 0.3594
6.6383, 0.3194
6.6486, 0.3438
6.6590, 0.3472
6.6693, 0.3229
6.6796, 0.3333
6.6899, 0.3090
6.7002, 0.3594
6.7105, 0.3542
6.7208, 0.3073
6.7311, 0.3142
6.7414, 0.2951
6.7517, 0.3628
6.7620, 0.3490
6.7723, 0.3455
6.7826, 0.3003
6.7929, 0.3212
6.8032, 0.3646
6.8135, 0.2969
6.8238, 0.3628
6.8341, 0.3611
6.8444, 0.2882
6.8547, 0.3073
6.8650, 0.3003
6.8753, 0.3750
6.8856, 0.3681
6.8959, 0.3646
6.9063, 0.3125
6.9166, 0.3368
6.9269, 0.2951
6.9372, 0.3264
6.9475, 0.3073
6.9578, 0.3594
6.9681, 0.3490
6.9784, 0.2899
6.9887, 0.3316
6.9990, 0.3160
7.0093, 0.3281
7.0196, 0.3090
7.0299, 0.2951
7.0402, 0.2813
7.0505, 0.2708
7.0608, 0.3056
7.0711, 0.3524
7.0814, 0.3281
7.0917, 0.3333
7.1020, 0.3299
7.1123, 0.3351
7.1226, 0.2969
7.1329, 0.3090
7.1432, 0.3090
7.1535, 0.3194
7.1639, 0.3247
7.1742, 0.2917
7.1845, 0.3038
7.1948, 0.3073
7.2051, 0.3594
7.2154, 0.2899
7.2257, 0.3385
7.2360, 0.3247
7.2463, 0.2760
7.2566, 0.2917
7.2669, 0.3003
7.2772, 0.2951
7.2875, 0.2986
7.2978, 0.3073
7.3081, 0.2604
7.3184, 0.3073
7.3287, 0.3090
7.3390, 0.3125
7.3493, 0.2865
7.3596, 0.2639
7.3699, 0.3299
7.3802, 0.2743
7.3905, 0.2691
7.4008, 0.3090
7.4111, 0.3194
7.4215, 0.2865
7.4318, 0.3090
7.4421, 0.2847
7.4524, 0.2795
7.4627, 0.2708
7.4730, 0.3073
7.4833, 0.2899
7.4936, 0.2500
7.5039, 0.3160
7.5142, 0.2517
7.5245, 0.2760
7.5348, 0.2743
7.5451, 0.3021
7.5554, 0.2622
7.5657, 0.2917
7.5760, 0.2882
7.5863, 0.2986
7.5966, 0.2899
7.6069, 0.3108
7.6172, 0.2951
7.6275, 0.2986
7.6378, 0.2396
7.6481, 0.3056
7.6584, 0.2656
7.6688, 0.3038
7.6791, 0.2483
7.6894, 0.3038
7.6997, 0.2934
7.7100, 0.3125
7.7203, 0.2865
7.7306, 0.2378
7.7409, 0.3316
7.7512, 0.2222
7.7615, 0.2969
7.7718, 0.2899
7.7821, 0.2795
7.7924, 0.2726
7.8027, 0.2257
7.8130, 0.2795
7.8233, 0.2604
7.8336, 0.2708
7.8439, 0.2431
7.8542, 0.2413
7.8645, 0.2309
7.8748, 0.2691
7.8851, 0.2569
7.8954, 0.3194
7.9057, 0.2639
7.9160, 0.2934
7.9264, 0.2760
7.9367, 0.2326
7.9470, 0.2604
7.9573, 0.2622
7.9676, 0.2274
7.9779, 0.2587
7.9882, 0.2465
7.9985, 0.2691
8.0088, 0.2170
8.0191, 0.2656
8.0294, 0.2847
8.0397, 0.2847
8.0500, 0.2569
8.0603, 0.2639
8.0706, 0.2778
8.0809, 0.2726
8.0912, 0.2569
8.1015, 0.2830
8.1118, 0.2778
8.1221, 0.2378
8.1324, 0.2205
8.1427, 0.2448
8.1530, 0.2500
8.1633, 0.3247
8.1737, 0.2309
8.1840, 0.2587
8.1943, 0.2743
8.2046, 0.2500
8.2149, 0.2448
8.2252, 0.2847
8.2355, 0.2517
8.2458, 0.2361
8.2561, 0.2587
8.2664, 0.2674
8.2767, 0.2135
8.2870, 0.2396
8.2973, 0.2587
8.3076, 0.2361
8.3179, 0.2309
8.3282, 0.2622
8.3385, 0.2604
8.3488, 0.2569
8.3591, 0.2760
8.3694, 0.2535
8.3797, 0.2448
8.3900, 0.2274
8.4003, 0.1979
8.4106, 0.1892
8.4209, 0.2153
8.4313, 0.2361
8.4416, 0.2569
8.4519, 0.2274
8.4622, 0.2448
8.4725, 0.2483
8.4828, 0.2326
8.4931, 0.2552
8.5034, 0.2517
8.5137, 0.2813
8.5240, 0.2691
8.5343, 0.2760
8.5446, 0.2639
8.5549, 0.2778
8.5652, 0.2535
8.5755, 0.2083
8.5858, 0.2413
8.5961, 0.2517
8.6064, 0.2361
8.6167, 0.2240
8.6270, 0.2656
8.6373, 0.2622
8.6476, 0.2031
8.6579, 0.2500
8.6682, 0.2240
8.6785, 0.2691
8.6889, 0.2083
8.6992, 0.2083
8.7095, 0.2240
8.7198, 0.2674
8.7301, 0.2170
8.7404, 0.2274
8.7507, 0.2708
8.7610, 0.2118
8.7713, 0.2344
8.7816, 0.2396
8.7919, 0.2396
8.8022, 0.2170
8.8125, 0.2014
8.8228, 0.2483
8.8331, 0.2118
8.8434, 0.2448
8.8537, 0.2257
8.8640, 0.2135
8.8743, 0.2292
8.8846, 0.2344
8.8949, 0.2413
8.9052, 0.1892
8.9155, 0.2292
8.9258, 0.2587
8.9362, 0.2170
8.9465, 0.2413
8.9568, 0.2031
8.9671, 0.2431
8.9774, 0.2396
8.9877, 0.2274
8.9980, 0.1962
9.0083, 0.2396
9.0186, 0.1910
9.0289, 0.2083
9.0392, 0.1944
9.0495, 0.2031
9.0598, 0.2222
9.0701, 0.2170
9.0804, 0.2292
9.0907, 0.1962
9.1010, 0.2483
9.1113, 0.2708
9.1216, 0.2222
9.1319, 0.2656
9.1422, 0.2743
9.1525, 0.1771
9.1628, 0.1823
9.1731, 0.2274
9.1834, 0.2170
9.1938, 0.2396
9.2041, 0.2153
9.2144, 0.1997
9.2247, 0.2257
9.2350, 0.2101
9.2453, 0.2500
9.2556, 0.2101
9.2659, 0.1788
9.2762, 0.2049
9.2865, 0.2257
9.2968, 0.2118
9.3071, 0.2083
9.3174, 0.2344
9.3277, 0.2500
9.3380, 0.2135
9.3483, 0.2188
9.3586, 0.1823
9.3689, 0.1910
9.3792, 0.2031
9.3895, 0.2188
9.3998, 0.2170
9.4101, 0.2135
9.4204, 0.2309
9.4307, 0.2344
9.4410, 0.2101
9.4514, 0.1979
9.4617, 0.2240
9.4720, 0.1858
9.4823, 0.2101
9.4926, 0.1736
9.5029, 0.2083
9.5132, 0.2049
9.5235, 0.2118
9.5338, 0.2361
9.5441, 0.1910
9.5544, 0.2222
9.5647, 0.1997
9.5750, 0.1927
9.5853, 0.1910
9.5956, 0.1840
9.6059, 0.2656
9.6162, 0.2396
9.6265, 0.1806
9.6368, 0.2031
9.6471, 0.1736
9.6574, 0.2222
9.6677, 0.2014
9.6780, 0.2153
9.6883, 0.2222
9.6987, 0.2240
9.7090, 0.2031
9.7193, 0.2205
9.7296, 0.2101
9.7399, 0.2118
9.7502, 0.2500
9.7605, 0.2101
9.7708, 0.1667
9.7811, 0.1997
9.7914, 0.2170
9.8017, 0.1979
9.8120, 0.2188
9.8223, 0.1858
9.8326, 0.2014
9.8429, 0.1962
9.8532, 0.2083
9.8635, 0.1632
9.8738, 0.2205
9.8841, 0.2049
9.8944, 0.1997
9.9047, 0.1910
9.9150, 0.1997
9.9253, 0.2448
9.9356, 0.1910
9.9459, 0.1753
9.9563, 0.1910
9.9666, 0.2309
9.9769, 0.2101
9.9872, 0.1580
9.9975, 0.2153
10.0078, 0.1858
10.0181, 0.1823
10.0284, 0.1354
10.0387, 0.1840
10.0490, 0.1771
10.0593, 0.1701
10.0696, 0.1632
10.0799, 0.1545
10.0902, 0.2101
10.1005, 0.2014
10.1108, 0.1424
10.1211, 0.2118
10.1314, 0.1806
10.1417, 0.2101
10.1520, 0.1962
10.1623, 0.1962
10.1726, 0.1719
10.1829, 0.1806
10.1932, 0.2153
10.2035, 0.2361
10.2139, 0.2101
10.2242, 0.2049
10.2345, 0.1927
10.2448, 0.2066
10.2551, 0.2101
10.2654, 0.1962
10.2757, 0.1788
10.2860, 0.2031
10.2963, 0.2014
10.3066, 0.1823
10.3169, 0.1944
10.3272, 0.1944
10.3375, 0.1944
10.3478, 0.1736
10.3581, 0.2049
10.3684, 0.1910
10.3787, 0.1684
10.3890, 0.1493
10.3993, 0.1858
10.4096, 0.1771
10.4199, 0.1684
10.4302, 0.1944
10.4405, 0.1684
10.4508, 0.1875
10.4612, 0.1372
10.4715, 0.1892
10.4818, 0.1701
10.4921, 0.1892
10.5024, 0.1771
10.5127, 0.1493
10.5230, 0.1667
10.5333, 0.1736
10.5436, 0.1719
10.5539, 0.1597
10.5642, 0.1840
10.5745, 0.2240
10.5848, 0.2031
10.5951, 0.1892
10.6054, 0.1753
10.6157, 0.1962
10.6260, 0.1580
10.6363, 0.1684
10.6466, 0.1441
10.6569, 0.1563
10.6672, 0.1806
10.6775, 0.2031
10.6878, 0.1875
10.6981, 0.1632
10.7084, 0.2066
10.7188, 0.1684
10.7291, 0.2257
10.7394, 0.1684
10.7497, 0.1823
10.7600, 0.1597
10.7703, 0.2083
10.7806, 0.1979
10.7909, 0.1875
10.8012, 0.1858
10.8115, 0.1910
10.8218, 0.1632
10.8321, 0.1597
10.8424, 0.1875
10.8527, 0.1823
10.8630, 0.1979
10.8733, 0.1719
10.8836, 0.2378
10.8939, 0.1597
10.9042, 0.1563
10.9145, 0.2083
10.9248, 0.2066
10.9351, 0.1875
10.9454, 0.2031
10.9557, 0.1875
10.9661, 0.2014
10.9764, 0.1858
10.9867, 0.1962
10.9970, 0.2031
11.0073, 0.1927
11.0176, 0.1927
11.0279, 0.1719
11.0382, 0.1997
11.0485, 0.1997
11.0588, 0.2188
11.0691, 0.2326
11.0794, 0.1701
11.0897, 0.1806
11.1000, 0.1823
11.1103, 0.2135
11.1206, 0.1979
11.1309, 0.2274
11.1412, 0.2222
11.1515, 0.1840
11.1618, 0.2292
11.1721, 0.2066
11.1824, 0.2205
11.1927, 0.1997
11.2030, 0.1875
11.2133, 0.2170
11.2237, 0.2049
11.2340, 0.2222
11.2443, 0.1840
11.2546, 0.2188
11.2649, 0.1684
11.2752, 0.1806
11.2855, 0.1875
11.2958, 0.1840
11.3061, 0.1736
11.3164, 0.1910
11.3267, 0.1910
11.3370, 0.1875
11.3473, 0.1858
11.3576, 0.1649
11.3679, 0.1858
11.3782, 0.1424
11.3885, 0.1632
11.3988, 0.1736
11.4091, 0.1771
11.4194, 0.2049
11.4297, 0.1597
11.4400, 0.1858
11.4503, 0.1545
11.4606, 0.1875
11.4709, 0.1528
11.4813, 0.1684
11.4916, 0.1806
11.5019, 0.1458
11.5122, 0.1823
11.5225, 0.1788
11.5328, 0.1615
11.5431, 0.1545
11.5534, 0.1615
11.5637, 0.1632
11.5740, 0.1458
11.5843, 0.1771
11.5946, 0.1250
11.6049, 0.1528
11.6152, 0.1840
11.6255, 0.1649
11.6358, 0.1649
11.6461, 0.1788
11.6564, 0.1545
11.6667, 0.1649
11.6770, 0.1632
11.6873, 0.1615
11.6976, 0.1528
11.7079, 0.1302
11.7182, 0.1528
11.7286, 0.1615
11.7389, 0.1441
11.7492, 0.1684
11.7595, 0.1736
11.7698, 0.1701
11.7801, 0.1875
11.7904, 0.1823
11.8007, 0.1441
11.8110, 0.1684
11.8213, 0.1684
11.8316, 0.1667
11.8419, 0.1389
11.8522, 0.1406
11.8625, 0.1545
11.8728, 0.1875
11.8831, 0.1458
11.8934, 0.1597
11.9037, 0.1667
11.9140, 0.1719
11.9243, 0.1858
11.9346, 0.1701
11.9449, 0.1719
11.9552, 0.1580
11.9655, 0.1667
11.9758, 0.1111
11.9862, 0.1441
11.9965, 0.1302
12.0068, 0.1406
12.0171, 0.1580
12.0274, 0.1580
12.0377, 0.1372
12.0480, 0.1788
12.0583, 0.1684
12.0686, 0.1372
12.0789, 0.1858
12.0892, 0.1372
12.0995, 0.1476
12.1098, 0.1597
12.1201, 0.1667
12.1304, 0.1684
12.1407, 0.1424
12.1510, 0.1632
12.1613, 0.1458
12.1716, 0.1823
12.1819, 0.1580
12.1922, 0.1337
12.2025, 0.1632
12.2128, 0.1580
12.2231, 0.1649
12.2334, 0.1736
12.2438, 0.1528
12.2541, 0.1337
12.2644, 0.1771
12.2747, 0.1389
12.2850, 0.1545
12.2953, 0.1458
12.3056, 0.1962
12.3159, 0.1615
12.3262, 0.1476
12.3365, 0.1753
12.3468, 0.1545
12.3571, 0.1632
12.3674, 0.1597
12.3777, 0.1563
12.3880, 0.1493
12.3983, 0.1580
12.4086, 0.1632
12.4189, 0.1441
12.4292, 0.1545
12.4395, 0.1441
12.4498, 0.1615
12.4601, 0.2135
12.4704, 0.1927
12.4807, 0.1493
12.4911, 0.1424
12.5014, 0.1823
12.5117, 0.1649
12.5220, 0.1875
12.5323, 0.1910
12.5426, 0.1979
12.5529, 0.1667
12.5632, 0.1545
12.5735, 0.1840
12.5838, 0.1944
12.5941, 0.1840
12.6044, 0.1840
12.6147, 0.2014
12.6250, 0.2188
12.6353, 0.1979
12.6456, 0.2049
12.6559, 0.1944
12.6662, 0.1944
12.6765, 0.2465
12.6868, 0.2431
12.6971, 0.1944
12.7074, 0.2101
12.7177, 0.1910
12.7280, 0.2118
12.7383, 0.2292
12.7487, 0.1840
12.7590, 0.2153
12.7693, 0.1892
12.7796, 0.2344
12.7899, 0.1997
12.8002, 0.1563
12.8105, 0.2188
12.8208, 0.1806
12.8311, 0.1632
12.8414, 0.1858
12.8517, 0.1858
12.8620, 0.1563
12.8723, 0.1563
12.8826, 0.1840
12.8929, 0.1389
12.9032, 0.1719
12.9135, 0.1771
12.9238, 0.1372
12.9341, 0.1528
12.9444, 0.1771
12.9547, 0.1684
12.9650, 0.1458
12.9753, 0.1649
12.9856, 0.1528
12.9959, 0.1719
13.0063, 0.1441
13.0166, 0.1597
13.0269, 0.1181
13.0372, 0.1701
13.0475, 0.1753
13.0578, 0.1545
13.0681, 0.1719
13.0784, 0.1198
13.0887, 0.1545
13.0990, 0.1597
13.1093, 0.1458
13.1196, 0.1424
13.1299, 0.1476
13.1402, 0.1389
13.1505, 0.1510
13.1608, 0.1528
13.1711, 0.1545
13.1814, 0.1580
13.1917, 0.1528
13.2020, 0.1458
13.2123, 0.1458
13.2226, 0.1337
13.2329, 0.1372
13.2432, 0.1701
13.2536, 0.1233
13.2639, 0.1111
13.2742, 0.1476
13.2845, 0.1719
13.2948, 0.1458
13.3051, 0.1215
13.3154, 0.1458
13.3257, 0.1354
13.3360, 0.1285
13.3463, 0.1528
13.3566, 0.1510
13.3669, 0.1615
13.3772, 0.1302
13.3875, 0.1285
13.3978, 0.1493
13.4081, 0.1372
13.4184, 0.1910
13.4287, 0.1389
13.4390, 0.1389
13.4493, 0.1128
13.4596, 0.1545
13.4699, 0.1354
13.4802, 0.1372
13.4905, 0.1441
13.5008, 0.1372
13.5112, 0.1771
13.5215, 0.1337
13.5318, 0.1615
13.5421, 0.1198
13.5524, 0.1441
13.5627, 0.1215
13.5730, 0.1267
13.5833, 0.1267
13.5936, 0.1128
13.6039, 0.1406
13.6142, 0.1250
13.6245, 0.1215
13.6348, 0.1493
13.6451, 0.1215
13.6554, 0.1458
13.6657, 0.1389
13.6760, 0.1233
13.6863, 0.1528
13.6966, 0.1649
13.7069, 0.1337
13.7172, 0.1580
13.7275, 0.1250
13.7378, 0.1337
13.7481, 0.1285
13.7584, 0.1441
13.7688, 0.1372
13.7791, 0.1406
13.7894, 0.1441
13.7997, 0.1632
13.8100, 0.1267
13.8203, 0.1424
13.8306, 0.1302
13.8409, 0.1528
13.8512, 0.1007
13.8615, 0.1372
13.8718, 0.1372
13.8821, 0.1406
13.8924, 0.1684
13.9027, 0.1337
13.9130, 0.1753
13.9233, 0.1510
13.9336, 0.1597
13.9439, 0.1389
13.9542, 0.1302
13.9645, 0.1597
13.9748, 0.1319
13.9851, 0.1476
13.9954, 0.1632
14.0057, 0.1319
14.0161, 0.1615
14.0264, 0.1580
14.0367, 0.1441
14.0470, 0.1597
14.0573, 0.1563
14.0676, 0.1649
14.0779, 0.1580
14.0882, 0.1441
14.0985, 0.1493
14.1088, 0.1458
14.1191, 0.1250
14.1294, 0.1632
14.1397, 0.1389
14.1500, 0.1128
14.1603, 0.1771
14.1706, 0.1337
14.1809, 0.1632
14.1912, 0.1753
14.2015, 0.1528
14.2118, 0.1823
14.2221, 0.1563
14.2324, 0.1806
14.2427, 0.1476
14.2530, 0.1458
14.2633, 0.1389
14.2737, 0.1545
14.2840, 0.1372
14.2943, 0.1580
14.3046, 0.1302
14.3149, 0.1701
14.3252, 0.1441
14.3355, 0.1545
14.3458, 0.1441
14.3561, 0.1319
14.3664, 0.1441
14.3767, 0.1736
14.3870, 0.1615
14.3973, 0.1615
14.4076, 0.1476
14.4179, 0.1510
14.4282, 0.1372
14.4385, 0.1563
14.4488, 0.1545
14.4591, 0.1094
14.4694, 0.1424
14.4797, 0.1563
14.4900, 0.1441
14.5003, 0.1632
14.5106, 0.1476
14.5210, 0.1545
14.5313, 0.1441
14.5416, 0.1319
14.5519, 0.1528
14.5622, 0.1563
14.5725, 0.1424
14.5828, 0.1424
14.5931, 0.1684
14.6034, 0.1285
14.6137, 0.1267
14.6240, 0.1510
14.6343, 0.1233
14.6446, 0.1545
14.6549, 0.1372
14.6652, 0.1545
14.6755, 0.1563
14.6858, 0.1337
14.6961, 0.1597
14.7064, 0.1649
14.7167, 0.1597
14.7270, 0.1684
14.7373, 0.1684
14.7476, 0.1892
14.7579, 0.1719
14.7682, 0.1458
14.7786, 0.1753
14.7889, 0.2153
14.7992, 0.2049
14.8095, 0.1892
14.8198, 0.1736
14.8301, 0.2309
14.8404, 0.2170
14.8507, 0.2431
14.8610, 0.2257
14.8713, 0.2569
14.8816, 0.3385
14.8919, 0.2917
14.9022, 0.2622
14.9125, 0.2830
14.9228, 0.3281
14.9331, 0.3455
14.9434, 0.3750
14.9537, 0.3941
14.9640, 0.3906
14.9743, 0.4028
14.9846, 0.3733
14.9949, 0.3524
15.0052, 0.3333
15.0155, 0.3507
15.0258, 0.3403
15.0362, 0.2917
15.0465, 0.3229
15.0568, 0.3281
15.0671, 0.2813
15.0774, 0.2899
15.0877, 0.2257
15.0980, 0.2656
15.1083, 0.2118
15.1186, 0.2396
15.1289, 0.1910
15.1392, 0.2309
15.1495, 0.1910
15.1598, 0.1944
15.1701, 0.1927
15.1804, 0.2135
15.1907, 0.2031
15.2010, 0.1858
15.2113, 0.2049
15.2216, 0.1892
15.2319, 0.1597
15.2422, 0.1892
15.2525, 0.1875
15.2628, 0.1962
15.2731, 0.1719
15.2835, 0.1771
15.2938, 0.1563
15.3041, 0.1684
15.3144, 0.1806
15.3247, 0.1806
15.3350, 0.1615
15.3453, 0.1719
15.3556, 0.1649
15.3659, 0.1997
15.3762, 0.1545
15.3865, 0.1753
15.3968, 0.1667
15.4071, 0.1840
15.4174, 0.1684
15.4277, 0.1493
15.4380, 0.1597
15.4483, 0.1441
15.4586, 0.1597
15.4689, 0.1632
15.4792, 0.1493
15.4895, 0.1528
15.4998, 0.1267
15.5101, 0.1528
15.5204, 0.1441
15.5307, 0.1424
15.5411, 0.1337
15.5514, 0.1510
15.5617, 0.1354
15.5720, 0.1406
15.5823, 0.1354
15.5926, 0.1233
15.6029, 0.1406
15.6132, 0.1372
15.6235, 0.1250
15.6338, 0.1337
15.6441, 0.1406
15.6544, 0.1337
15.6647, 0.1510
15.6750, 0.1128
15.6853, 0.1146
15.6956, 0.1198
15.7059, 0.1111
15.7162, 0.1233
15.7265, 0.1406
15.7368, 0.1285
15.7471, 0.1250
15.7574, 0.1389
15.7677, 0.1510
15.7780, 0.1007
15.7883, 0.1372
15.7987, 0.1181
15.8090, 0.1163
15.8193, 0.1337
15.8296, 0.1250
15.8399, 0.1493
15.8502, 0.1181
15.8605, 0.1198
15.8708, 0.1181
15.8811, 0.1146
15.8914, 0.0972
15.9017, 0.1198
15.9120, 0.1076
15.9223, 0.1250
15.9326, 0.1302
15.9429, 0.1267
15.9532, 0.1094
15.9635, 0.1128
15.9738, 0.1094
15.9841, 0.1354
15.9944, 0.1076
16.0047, 0.1094
16.0150, 0.1111
16.0253, 0.1128
16.0356, 0.1337
16.0460, 0.1250
16.0563, 0.1181
16.0666, 0.1042
16.0769, 0.1128
16.0872, 0.1406
16.0975, 0.1233
16.1078, 0.1250
16.1181, 0.1198
16.1284, 0.1198
16.1387, 0.1076
16.1490, 0.1024
16.1593, 0.1406
16.1696, 0.1198
16.1799, 0.1250
16.1902, 0.1267
16.2005, 0.1215
16.2108, 0.1372
16.2211, 0.1007
16.2314, 0.1128
16.2417, 0.1354
16.2520, 0.1024
16.2623, 0.1372
16.2726, 0.1267
16.2829, 0.1094
16.2932, 0.1076
16.3036, 0.1233
16.3139, 0.1372
16.3242, 0.1372
16.3345, 0.1285
16.3448, 0.1094
16.3551, 0.1389
16.3654, 0.1267
16.3757, 0.1337
16.3860, 0.1181
16.3963, 0.1285
16.4066, 0.1181
16.4169, 0.1302
16.4272, 0.1285
16.4375, 0.1372
16.4478, 0.1267
16.4581, 0.1528
16.4684, 0.0833
16.4787, 0.1458
16.4890, 0.1337
16.4993, 0.1250
16.5096, 0.1302
16.5199, 0.1424
16.5302, 0.1545
16.5405, 0.1667
16.5508, 0.1563
16.5612, 0.1354
16.5715, 0.1389
16.5818, 0.1528
16.5921, 0.1233
16.6024, 0.1667
16.6127, 0.1337
16.6230, 0.1267
16.6333, 0.1337
16.6436, 0.1580
16.6539, 0.1337
16.6642, 0.1389
16.6745, 0.1372
16.6848, 0.1354
16.6951, 0.1424
16.7054, 0.1302
16.7157, 0.1406
16.7260, 0.1354
16.7363, 0.1545
16.7466, 0.1285
16.7569, 0.1128
16.7672, 0.1233
16.7775, 0.1424
16.7878, 0.1406
16.7981, 0.1128
16.8085, 0.1267
16.8188, 0.1250
16.8291, 0.1233
16.8394, 0.0903
16.8497, 0.1233
16.8600, 0.1406
16.8703, 0.0955
16.8806, 0.1493
16.8909, 0.0955
16.9012, 0.1076
16.9115, 0.0955
16.9218, 0.1146
16.9321, 0.1285
16.9424, 0.1250
16.9527, 0.1111
16.9630, 0.1094
16.9733, 0.1319
16.9836, 0.1076
16.9939, 0.1476
17.0042, 0.1076
17.0145, 0.1233
17.0248, 0.1181
17.0351, 0.0972
17.0454, 0.1128
17.0557, 0.0972
17.0661, 0.1632
17.0764, 0.1285
17.0867, 0.1042
17.0970, 0.1024
17.1073, 0.1319
17.1176, 0.1337
17.1279, 0.1250
17.1382, 0.1094
17.1485, 0.1146
17.1588, 0.1302
17.1691, 0.1076
17.1794, 0.0920
17.1897, 0.1406
17.2000, 0.1128
17.2103, 0.1111
17.2206, 0.1198
17.2309, 0.1181
17.2412, 0.1302
17.2515, 0.0990
17.2618, 0.1198
17.2721, 0.1302
17.2824, 0.1059
17.2927, 0.1354
17.3030, 0.1111
17.3134, 0.1476
17.3237, 0.1146
17.3340, 0.1354
17.3443, 0.1354
17.3546, 0.1319
17.3649, 0.1250
17.3752, 0.1285
17.3855, 0.1146
17.3958, 0.1354
17.4061, 0.1007
17.4164, 0.1319
17.4267, 0.0990
17.4370, 0.0833
17.4473, 0.0972
17.4576, 0.1250
17.4679, 0.1146
17.4782, 0.1215
17.4885, 0.1059
17.4988, 0.0920
17.5091, 0.1250
17.5194, 0.1181
17.5297, 0.1024
17.5400, 0.1163
17.5503, 0.1059
17.5606, 0.1181
17.5710, 0.1042
17.5813, 0.1198
17.5916, 0.1094
17.6019, 0.0955
17.6122, 0.1267
17.6225, 0.1111
17.6328, 0.0990
17.6431, 0.1406
17.6534, 0.1285
17.6637, 0.1267
17.6740, 0.1076
17.6843, 0.1163
17.6946, 0.1198
17.7049, 0.0868
17.7152, 0.1111
17.7255, 0.1250
17.7358, 0.1406
17.7461, 0.1250
17.7564, 0.1146
17.7667, 0.1267
17.7770, 0.1128
17.7873, 0.1198
17.7976, 0.1076
17.8079, 0.1319
17.8182, 0.1215
17.8286, 0.1128
17.8389, 0.1146
17.8492, 0.1128
17.8595, 0.1302
17.8698, 0.1059
17.8801, 0.1111
17.8904, 0.1163
17.9007, 0.1163
17.9110, 0.1128
17.9213, 0.1424
17.9316, 0.1128
17.9419, 0.1563
17.9522, 0.1163
17.9625, 0.1111
